15-10-23spec_0009_0068.txt

Exposure (ms)	5000
Row number	Wavelength (nm)	Energy (eV)	Amplitude (a.u.)
0.000	53.570	23.144	159.244
1.000	53.738	23.072	160.400
2.000	53.905	23.000	159.244
3.000	54.073	22.929	160.689
4.000	54.240	22.858	159.044
5.000	54.408	22.788	160.333
6.000	54.575	22.718	160.133
7.000	54.742	22.649	159.200
8.000	54.910	22.580	160.378
9.000	55.077	22.511	161.444
10.000	55.245	22.443	162.289
11.000	55.412	22.375	161.667
12.000	55.579	22.308	161.289
13.000	55.747	22.241	161.800
14.000	55.914	22.174	163.178
15.000	56.082	22.108	164.133
16.000	56.249	22.042	163.422
17.000	56.417	21.977	164.022
18.000	56.584	21.912	164.178
19.000	56.751	21.847	164.600
20.000	56.919	21.783	164.267
21.000	57.086	21.719	165.044
22.000	57.254	21.655	165.267
23.000	57.421	21.592	166.356
24.000	57.588	21.529	168.089
25.000	57.756	21.467	167.511
26.000	57.923	21.405	165.978
27.000	58.091	21.343	167.133
28.000	58.258	21.282	166.511
29.000	58.426	21.221	165.778
30.000	58.593	21.160	165.444
31.000	58.760	21.100	163.733
32.000	58.928	21.040	161.000
33.000	59.095	20.980	159.622
34.000	59.263	20.921	158.022
35.000	59.430	20.862	155.333
36.000	59.597	20.804	151.867
37.000	59.765	20.745	147.444
38.000	59.932	20.687	140.311
39.000	60.100	20.630	133.800
40.000	60.267	20.572	128.378
41.000	60.434	20.515	123.889
42.000	60.602	20.459	122.156
43.000	60.769	20.402	120.867
44.000	60.937	20.346	121.822
45.000	61.104	20.291	122.244
46.000	61.272	20.235	122.244
47.000	61.439	20.180	120.356
48.000	61.606	20.125	122.778
49.000	61.774	20.071	122.022
50.000	61.941	20.016	120.200
51.000	62.109	19.962	119.800
52.000	62.276	19.909	119.778
53.000	62.443	19.855	120.422
54.000	62.611	19.802	121.111
55.000	62.778	19.750	123.133
56.000	62.946	19.697	123.822
57.000	63.113	19.645	122.778
58.000	63.281	19.593	122.933
59.000	63.448	19.541	122.778
60.000	63.615	19.490	122.622
61.000	63.783	19.439	122.000
62.000	63.950	19.388	121.467
63.000	64.118	19.337	123.311
64.000	64.285	19.287	122.311
65.000	64.452	19.237	121.422
66.000	64.620	19.187	122.578
67.000	64.787	19.137	122.200
68.000	64.955	19.088	123.533
69.000	65.122	19.039	123.022
70.000	65.290	18.990	124.067
71.000	65.457	18.941	123.067
72.000	65.624	18.893	125.222
73.000	65.792	18.845	124.067
74.000	65.959	18.797	126.222
75.000	66.127	18.750	126.911
76.000	66.294	18.702	130.178
77.000	66.461	18.655	130.644
78.000	66.629	18.608	128.533
79.000	66.796	18.562	128.022
80.000	66.964	18.515	126.756
81.000	67.131	18.469	127.378
82.000	67.299	18.423	127.200
83.000	67.466	18.377	127.667
84.000	67.633	18.332	127.511
85.000	67.801	18.287	128.444
86.000	67.968	18.242	128.044
87.000	68.136	18.197	129.400
88.000	68.303	18.152	130.178
89.000	68.470	18.108	131.156
90.000	68.638	18.064	132.578
91.000	68.805	18.020	132.089
92.000	68.973	17.976	133.378
93.000	69.140	17.932	134.689
94.000	69.307	17.889	135.222
95.000	69.475	17.846	135.378
96.000	69.642	17.803	136.711
97.000	69.810	17.760	137.600
98.000	69.977	17.718	140.156
99.000	70.145	17.676	139.933
100.000	70.312	17.633	144.756
101.000	70.479	17.592	142.844
102.000	70.647	17.550	143.178
103.000	70.814	17.508	145.378
104.000	70.982	17.467	147.267
105.000	71.149	17.426	150.267
106.000	71.316	17.385	152.356
107.000	71.484	17.344	157.578
108.000	71.651	17.304	162.844
109.000	71.819	17.263	173.222
110.000	71.986	17.223	178.467
111.000	72.154	17.183	180.956
112.000	72.321	17.144	180.244
113.000	72.488	17.104	188.111
114.000	72.656	17.065	202.956
115.000	72.823	17.025	227.400
116.000	72.991	16.986	260.156
117.000	73.158	16.947	289.089
118.000	73.325	16.909	296.822
119.000	73.493	16.870	299.400
120.000	73.660	16.832	299.889
121.000	73.828	16.794	299.267
122.000	73.995	16.756	310.356
123.000	74.163	16.718	331.222
124.000	74.330	16.680	363.933
125.000	74.497	16.643	411.578
126.000	74.665	16.605	454.178
127.000	74.832	16.568	490.022
128.000	75.000	16.531	511.422
129.000	75.167	16.494	534.644
130.000	75.334	16.458	551.067
131.000	75.502	16.421	565.600
132.000	75.669	16.385	587.222
133.000	75.837	16.349	631.400
134.000	76.004	16.313	686.800
135.000	76.171	16.277	724.578
136.000	76.339	16.241	784.222
137.000	76.506	16.206	846.644
138.000	76.674	16.170	903.622
139.000	76.841	16.135	906.711
140.000	77.009	16.100	901.244
141.000	77.176	16.065	896.422
142.000	77.343	16.030	898.844
143.000	77.511	15.996	927.511
144.000	77.678	15.961	972.333
145.000	77.846	15.927	1029.178
146.000	78.013	15.893	1066.356
147.000	78.180	15.859	1065.978
148.000	78.348	15.825	1048.711
149.000	78.515	15.791	1038.956
150.000	78.683	15.757	1060.200
151.000	78.850	15.724	1075.333
152.000	79.018	15.691	1041.511
153.000	79.185	15.658	1014.911
154.000	79.352	15.625	1018.511
155.000	79.520	15.592	1038.311
156.000	79.687	15.559	1005.133
157.000	79.855	15.526	907.044
158.000	80.022	15.494	825.711
159.000	80.189	15.461	791.800
160.000	80.357	15.429	766.178
161.000	80.524	15.397	718.289
162.000	80.692	15.365	641.133
163.000	80.859	15.333	592.000
164.000	81.027	15.302	561.400
165.000	81.194	15.270	562.800
166.000	81.361	15.239	573.889
167.000	81.529	15.207	580.667
168.000	81.696	15.176	588.756
169.000	81.864	15.145	600.222
170.000	82.031	15.114	616.444
171.000	82.198	15.084	640.044
172.000	82.366	15.053	681.733
173.000	82.533	15.022	746.400
174.000	82.701	14.992	829.844
175.000	82.868	14.962	892.733
176.000	83.036	14.931	922.356
177.000	83.203	14.901	927.956
178.000	83.370	14.871	936.733
179.000	83.538	14.842	943.089
180.000	83.705	14.812	924.489
181.000	83.873	14.782	882.178
182.000	84.040	14.753	816.844
183.000	84.207	14.724	726.200
184.000	84.375	14.694	621.533
185.000	84.542	14.665	545.578
186.000	84.710	14.636	546.822
187.000	84.877	14.608	612.978
188.000	85.044	14.579	719.756
189.000	85.212	14.550	841.933
190.000	85.379	14.522	932.711
191.000	85.547	14.493	978.267
192.000	85.714	14.465	999.733
193.000	85.882	14.437	1013.467
194.000	86.049	14.409	1009.289
195.000	86.216	14.381	996.933
196.000	86.384	14.353	987.111
197.000	86.551	14.325	955.711
198.000	86.719	14.297	925.911
199.000	86.886	14.270	871.333
200.000	87.053	14.242	789.533
201.000	87.221	14.215	685.133
202.000	87.388	14.188	574.244
203.000	87.556	14.161	492.356
204.000	87.723	14.134	476.356
205.000	87.891	14.107	506.600
206.000	88.058	14.080	550.133
207.000	88.225	14.053	625.978
208.000	88.393	14.027	712.933
209.000	88.560	14.000	779.356
210.000	88.728	13.974	791.667
211.000	88.895	13.947	762.156
212.000	89.062	13.921	738.356
213.000	89.230	13.895	747.000
214.000	89.397	13.869	790.067
215.000	89.565	13.843	823.622
216.000	89.732	13.817	835.644
217.000	89.900	13.791	857.889
218.000	90.067	13.766	872.600
219.000	90.234	13.740	853.889
220.000	90.402	13.715	808.733
221.000	90.569	13.689	781.667
222.000	90.737	13.664	793.333
223.000	90.904	13.639	831.178
224.000	91.071	13.614	850.356
225.000	91.239	13.589	868.289
226.000	91.406	13.564	857.511
227.000	91.574	13.539	830.400
228.000	91.741	13.515	831.200
229.000	91.908	13.490	835.089
230.000	92.076	13.465	838.444
231.000	92.243	13.441	844.533
232.000	92.411	13.417	850.089
233.000	92.578	13.392	879.289
234.000	92.746	13.368	906.222
235.000	92.913	13.344	889.978
236.000	93.080	13.320	870.711
237.000	93.248	13.296	864.778
238.000	93.415	13.272	843.844
239.000	93.583	13.249	804.022
240.000	93.750	13.225	763.422
241.000	93.917	13.201	736.089
242.000	94.085	13.178	754.267
243.000	94.252	13.154	751.667
244.000	94.420	13.131	723.044
245.000	94.587	13.108	712.822
246.000	94.755	13.085	686.444
247.000	94.922	13.062	667.489
248.000	95.089	13.039	680.978
249.000	95.257	13.016	692.133
250.000	95.424	12.993	680.422
251.000	95.592	12.970	658.133
252.000	95.759	12.948	624.222
253.000	95.926	12.925	588.889
254.000	96.094	12.902	577.311
255.000	96.261	12.880	537.844
256.000	96.429	12.858	475.267
257.000	96.596	12.835	442.333
258.000	96.764	12.813	446.956
259.000	96.931	12.791	448.400
260.000	97.098	12.769	468.956
261.000	97.266	12.747	502.111
262.000	97.433	12.725	500.822
263.000	97.601	12.703	502.267
264.000	97.768	12.681	508.889
265.000	97.935	12.660	483.511
266.000	98.103	12.638	461.556
267.000	98.270	12.617	453.578
268.000	98.438	12.595	438.978
269.000	98.605	12.574	417.289
270.000	98.773	12.553	432.556
271.000	98.940	12.531	458.911
272.000	99.107	12.510	471.489
273.000	99.275	12.489	496.622
274.000	99.442	12.468	499.422
275.000	99.610	12.447	478.844
276.000	99.777	12.426	434.889
277.000	99.944	12.405	416.933
278.000	100.112	12.385	406.089
279.000	100.279	12.364	389.000
280.000	100.447	12.343	382.089
281.000	100.614	12.323	388.511
282.000	100.781	12.302	378.733
283.000	100.949	12.282	356.933
284.000	101.116	12.262	339.422
285.000	101.284	12.241	321.911
286.000	101.451	12.221	282.844
287.000	101.619	12.201	252.622
288.000	101.786	12.181	241.511
289.000	101.953	12.161	243.267
290.000	102.121	12.141	251.000
291.000	102.288	12.121	271.044
292.000	102.456	12.101	287.200
293.000	102.623	12.082	286.889
294.000	102.790	12.062	286.111
295.000	102.958	12.042	306.289
296.000	103.125	12.023	305.067
297.000	103.293	12.003	285.444
298.000	103.460	11.984	282.444
299.000	103.628	11.964	292.333
300.000	103.795	11.945	285.467
301.000	103.962	11.926	251.489
302.000	104.130	11.907	237.000
303.000	104.297	11.888	238.000
304.000	104.465	11.869	234.822
305.000	104.632	11.850	232.489
306.000	104.799	11.831	241.667
307.000	104.967	11.812	254.956
308.000	105.134	11.793	251.489
309.000	105.302	11.774	234.556
310.000	105.469	11.755	225.089
311.000	105.637	11.737	231.089
312.000	105.804	11.718	242.711
313.000	105.971	11.700	250.422
314.000	106.139	11.681	257.244
315.000	106.306	11.663	263.600
316.000	106.474	11.645	252.356
317.000	106.641	11.626	234.489
318.000	106.808	11.608	219.911
319.000	106.976	11.590	208.978
320.000	107.143	11.572	196.111
321.000	107.311	11.554	184.844
322.000	107.478	11.536	175.289
323.000	107.645	11.518	171.733
324.000	107.813	11.500	171.911
325.000	107.980	11.482	178.178
326.000	108.148	11.464	198.111
327.000	108.315	11.447	217.578
328.000	108.483	11.429	224.311
329.000	108.650	11.411	221.356
330.000	108.817	11.394	216.000
331.000	108.985	11.376	215.200
332.000	109.152	11.359	214.422
333.000	109.320	11.341	208.111
334.000	109.487	11.324	197.289
335.000	109.654	11.307	189.222
336.000	109.822	11.290	186.111
337.000	109.989	11.272	185.422
338.000	110.157	11.255	182.644
339.000	110.324	11.238	173.200
340.000	110.492	11.221	164.778
341.000	110.659	11.204	165.578
342.000	110.826	11.187	159.778
343.000	110.994	11.170	160.289
344.000	111.161	11.154	163.044
345.000	111.329	11.137	158.467
346.000	111.496	11.120	159.711
347.000	111.663	11.103	159.422
348.000	111.831	11.087	158.356
349.000	111.998	11.070	163.067
350.000	112.166	11.054	169.667
351.000	112.333	11.037	174.756
352.000	112.501	11.021	193.622
353.000	112.668	11.004	222.267
354.000	112.835	10.988	247.000
355.000	113.003	10.972	252.822
356.000	113.170	10.956	248.111
357.000	113.338	10.939	236.778
358.000	113.505	10.923	220.867
359.000	113.672	10.907	217.400
360.000	113.840	10.891	217.822
361.000	114.007	10.875	219.022
362.000	114.175	10.859	212.289
363.000	114.342	10.843	202.600
364.000	114.510	10.827	193.600
365.000	114.677	10.812	187.222
366.000	114.844	10.796	185.444
367.000	115.012	10.780	194.622
368.000	115.179	10.764	208.822
369.000	115.347	10.749	219.156
370.000	115.514	10.733	225.178
371.000	115.681	10.718	217.022
372.000	115.849	10.702	197.289
373.000	116.016	10.687	181.356
374.000	116.184	10.671	175.156
375.000	116.351	10.656	174.422
376.000	116.518	10.641	176.022
377.000	116.686	10.625	186.422
378.000	116.853	10.610	195.378
379.000	117.021	10.595	205.489
380.000	117.188	10.580	206.667
381.000	117.356	10.565	205.378
382.000	117.523	10.550	210.333
383.000	117.690	10.535	212.378
384.000	117.858	10.520	213.578
385.000	118.025	10.505	210.000
386.000	118.193	10.490	201.400
387.000	118.360	10.475	197.956
388.000	118.527	10.460	201.911
389.000	118.695	10.446	206.489
390.000	118.862	10.431	208.000
391.000	119.030	10.416	202.467
392.000	119.197	10.402	203.156
393.000	119.365	10.387	214.111
394.000	119.532	10.372	210.556
395.000	119.699	10.358	195.733
396.000	119.867	10.343	179.578
397.000	120.034	10.329	164.422
398.000	120.202	10.315	157.756
399.000	120.369	10.300	153.111
400.000	120.536	10.286	152.311
401.000	120.704	10.272	150.822
402.000	120.871	10.258	150.356
403.000	121.039	10.243	149.422
404.000	121.206	10.229	152.533
405.000	121.374	10.215	154.267
406.000	121.541	10.201	157.822
407.000	121.708	10.187	166.622
408.000	121.876	10.173	179.867
409.000	122.043	10.159	180.333
410.000	122.211	10.145	177.533
411.000	122.378	10.131	171.089
412.000	122.545	10.117	170.044
413.000	122.713	10.104	169.200
414.000	122.880	10.090	170.200
415.000	123.048	10.076	164.044
416.000	123.215	10.062	164.400
417.000	123.383	10.049	166.822
418.000	123.550	10.035	174.511
419.000	123.717	10.022	190.711
420.000	123.885	10.008	214.600
421.000	124.052	9.995	226.733
422.000	124.220	9.981	239.178
423.000	124.387	9.968	243.200
424.000	124.554	9.954	237.533
425.000	124.722	9.941	217.733
426.000	124.889	9.928	197.778
427.000	125.057	9.914	178.022
428.000	125.224	9.901	168.333
429.000	125.391	9.888	164.644
430.000	125.559	9.875	164.378
431.000	125.726	9.861	168.156
432.000	125.894	9.848	181.511
433.000	126.061	9.835	194.178
434.000	126.229	9.822	202.556
435.000	126.396	9.809	209.467
436.000	126.563	9.796	213.511
437.000	126.731	9.783	214.533
438.000	126.898	9.770	217.867
439.000	127.066	9.757	225.467
440.000	127.233	9.745	222.556
441.000	127.400	9.732	216.978
442.000	127.568	9.719	210.600
443.000	127.735	9.706	197.978
444.000	127.903	9.694	184.911
445.000	128.070	9.681	184.356
446.000	128.238	9.668	193.622
447.000	128.405	9.656	202.822
448.000	128.572	9.643	209.733
449.000	128.740	9.631	220.022
450.000	128.907	9.618	226.111
451.000	129.075	9.606	220.289
452.000	129.242	9.593	203.156
453.000	129.409	9.581	187.667
454.000	129.577	9.568	177.289
455.000	129.744	9.556	175.489
456.000	129.912	9.544	180.844
457.000	130.079	9.531	182.511
458.000	130.247	9.519	170.622
459.000	130.414	9.507	164.400
460.000	130.581	9.495	161.689
461.000	130.749	9.483	166.356
462.000	130.916	9.471	168.311
463.000	131.084	9.458	171.689
464.000	131.251	9.446	173.978
465.000	131.418	9.434	177.600
466.000	131.586	9.422	171.289
467.000	131.753	9.410	163.378
468.000	131.921	9.398	158.756
469.000	132.088	9.386	156.667
470.000	132.255	9.375	162.089
471.000	132.423	9.363	175.333
472.000	132.590	9.351	189.000
473.000	132.758	9.339	187.822
474.000	132.925	9.327	184.800
475.000	133.093	9.316	182.867
476.000	133.260	9.304	183.244
477.000	133.427	9.292	183.889
478.000	133.595	9.281	181.289
479.000	133.762	9.269	176.933
480.000	133.930	9.257	169.711
481.000	134.097	9.246	161.289
482.000	134.264	9.234	157.089
483.000	134.432	9.223	153.822
484.000	134.599	9.211	150.244
485.000	134.767	9.200	149.467
486.000	134.934	9.188	150.400
487.000	135.102	9.177	154.067
488.000	135.269	9.166	160.733
489.000	135.436	9.154	167.822
490.000	135.604	9.143	167.400
491.000	135.771	9.132	163.222
492.000	135.939	9.121	159.267
493.000	136.106	9.109	162.822
494.000	136.273	9.098	171.000
495.000	136.441	9.087	178.711
496.000	136.608	9.076	180.378
497.000	136.776	9.065	178.556
498.000	136.943	9.054	176.533
499.000	137.111	9.043	178.467
500.000	137.278	9.032	183.489
501.000	137.445	9.021	190.867
502.000	137.613	9.010	195.733
503.000	137.780	8.999	201.600
504.000	137.948	8.988	212.222
505.000	138.115	8.977	209.867
506.000	138.282	8.966	207.444
507.000	138.450	8.955	211.356
508.000	0.000	0.000	0.000
509.000	0.000	0.000	0.000
510.000	0.000	0.000	0.000
511.000	0.000	0.000	0.000
512.000	0.000	0.000	0.000
513.000	0.000	0.000	0.000
514.000	0.000	0.000	0.000
515.000	0.000	0.000	0.000
516.000	0.000	0.000	0.000
517.000	0.000	0.000	0.000
518.000	0.000	0.000	0.000
519.000	0.000	0.000	0.000
520.000	0.000	0.000	0.000
521.000	0.000	0.000	0.000
522.000	0.000	0.000	0.000
523.000	0.000	0.000	0.000
524.000	0.000	0.000	0.000
525.000	0.000	0.000	0.000
526.000	0.000	0.000	0.000
527.000	0.000	0.000	0.000
528.000	0.000	0.000	0.000
529.000	0.000	0.000	0.000
530.000	0.000	0.000	0.000
531.000	0.000	0.000	0.000
532.000	0.000	0.000	0.000
533.000	0.000	0.000	0.000
534.000	0.000	0.000	0.000
535.000	0.000	0.000	0.000
536.000	0.000	0.000	0.000
537.000	0.000	0.000	0.000
538.000	0.000	0.000	0.000
539.000	0.000	0.000	0.000
540.000	0.000	0.000	0.000
541.000	0.000	0.000	0.000
542.000	0.000	0.000	0.000
543.000	0.000	0.000	0.000
544.000	0.000	0.000	0.000
545.000	0.000	0.000	0.000
546.000	0.000	0.000	0.000
547.000	0.000	0.000	0.000
548.000	0.000	0.000	0.000
549.000	0.000	0.000	0.000
550.000	0.000	0.000	0.000
551.000	0.000	0.000	0.000
552.000	0.000	0.000	0.000
553.000	0.000	0.000	0.000
554.000	0.000	0.000	0.000
555.000	0.000	0.000	0.000
556.000	0.000	0.000	0.000
557.000	0.000	0.000	0.000
558.000	0.000	0.000	0.000
559.000	0.000	0.000	0.000
560.000	0.000	0.000	0.000
561.000	0.000	0.000	0.000
562.000	0.000	0.000	0.000
563.000	0.000	0.000	0.000
564.000	0.000	0.000	0.000
565.000	0.000	0.000	0.000
566.000	0.000	0.000	0.000
567.000	0.000	0.000	0.000
568.000	0.000	0.000	0.000
569.000	0.000	0.000	0.000
570.000	0.000	0.000	0.000
571.000	0.000	0.000	0.000
572.000	0.000	0.000	0.000
573.000	0.000	0.000	0.000
574.000	0.000	0.000	0.000
575.000	0.000	0.000	0.000
576.000	0.000	0.000	0.000
577.000	0.000	0.000	0.000
578.000	0.000	0.000	0.000
579.000	0.000	0.000	0.000
580.000	0.000	0.000	0.000
581.000	0.000	0.000	0.000
582.000	0.000	0.000	0.000
583.000	0.000	0.000	0.000
584.000	0.000	0.000	0.000
585.000	0.000	0.000	0.000
586.000	0.000	0.000	0.000
587.000	0.000	0.000	0.000
588.000	0.000	0.000	0.000
589.000	0.000	0.000	0.000
590.000	0.000	0.000	0.000
591.000	0.000	0.000	0.000
592.000	0.000	0.000	0.000
593.000	0.000	0.000	0.000
594.000	0.000	0.000	0.000
595.000	0.000	0.000	0.000
596.000	0.000	0.000	0.000
597.000	0.000	0.000	0.000
598.000	0.000	0.000	0.000
599.000	0.000	0.000	0.000
600.000	0.000	0.000	0.000
601.000	0.000	0.000	0.000
602.000	0.000	0.000	0.000
603.000	0.000	0.000	0.000
604.000	0.000	0.000	0.000
605.000	0.000	0.000	0.000
606.000	0.000	0.000	0.000
607.000	0.000	0.000	0.000
608.000	0.000	0.000	0.000
609.000	0.000	0.000	0.000
610.000	0.000	0.000	0.000
611.000	0.000	0.000	0.000
612.000	0.000	0.000	0.000
613.000	0.000	0.000	0.000
614.000	0.000	0.000	0.000
615.000	0.000	0.000	0.000
616.000	0.000	0.000	0.000
617.000	0.000	0.000	0.000
618.000	0.000	0.000	0.000
619.000	0.000	0.000	0.000
620.000	0.000	0.000	0.000
621.000	0.000	0.000	0.000
622.000	0.000	0.000	0.000
623.000	0.000	0.000	0.000
624.000	0.000	0.000	0.000
625.000	0.000	0.000	0.000
626.000	0.000	0.000	0.000
627.000	0.000	0.000	0.000
628.000	0.000	0.000	0.000
629.000	0.000	0.000	0.000
630.000	0.000	0.000	0.000
631.000	0.000	0.000	0.000
632.000	0.000	0.000	0.000
633.000	0.000	0.000	0.000
634.000	0.000	0.000	0.000
635.000	0.000	0.000	0.000
636.000	0.000	0.000	0.000
637.000	0.000	0.000	0.000
638.000	0.000	0.000	0.000
639.000	0.000	0.000	0.000
640.000	0.000	0.000	0.000
641.000	0.000	0.000	0.000
642.000	0.000	0.000	0.000
643.000	0.000	0.000	0.000
644.000	0.000	0.000	0.000
645.000	0.000	0.000	0.000
646.000	0.000	0.000	0.000
647.000	0.000	0.000	0.000
648.000	0.000	0.000	0.000
649.000	0.000	0.000	0.000
650.000	0.000	0.000	0.000
651.000	0.000	0.000	0.000
652.000	0.000	0.000	0.000
653.000	0.000	0.000	0.000
654.000	0.000	0.000	0.000
655.000	0.000	0.000	0.000
656.000	0.000	0.000	0.000
657.000	0.000	0.000	0.000
658.000	0.000	0.000	0.000
659.000	0.000	0.000	0.000
660.000	0.000	0.000	0.000
661.000	0.000	0.000	0.000
662.000	0.000	0.000	0.000
663.000	0.000	0.000	0.000
664.000	0.000	0.000	0.000
665.000	0.000	0.000	0.000
666.000	0.000	0.000	0.000
667.000	0.000	0.000	0.000
668.000	0.000	0.000	0.000
669.000	0.000	0.000	0.000
670.000	0.000	0.000	0.000
671.000	0.000	0.000	0.000
672.000	0.000	0.000	0.000
673.000	0.000	0.000	0.000
674.000	0.000	0.000	0.000
675.000	0.000	0.000	0.000
676.000	0.000	0.000	0.000
677.000	0.000	0.000	0.000
678.000	0.000	0.000	0.000
679.000	0.000	0.000	0.000
680.000	0.000	0.000	0.000
681.000	0.000	0.000	0.000
682.000	0.000	0.000	0.000
683.000	0.000	0.000	0.000
684.000	0.000	0.000	0.000
685.000	0.000	0.000	0.000
686.000	0.000	0.000	0.000
687.000	0.000	0.000	0.000
688.000	0.000	0.000	0.000
689.000	0.000	0.000	0.000
690.000	0.000	0.000	0.000
691.000	0.000	0.000	0.000
692.000	0.000	0.000	0.000
693.000	0.000	0.000	0.000
694.000	0.000	0.000	0.000
695.000	0.000	0.000	0.000
696.000	0.000	0.000	0.000
697.000	0.000	0.000	0.000
698.000	0.000	0.000	0.000
699.000	0.000	0.000	0.000
700.000	0.000	0.000	0.000
701.000	0.000	0.000	0.000
702.000	0.000	0.000	0.000
703.000	0.000	0.000	0.000
704.000	0.000	0.000	0.000
705.000	0.000	0.000	0.000
706.000	0.000	0.000	0.000
707.000	0.000	0.000	0.000
708.000	0.000	0.000	0.000
709.000	0.000	0.000	0.000
710.000	0.000	0.000	0.000
711.000	0.000	0.000	0.000
712.000	0.000	0.000	0.000
713.000	0.000	0.000	0.000
714.000	0.000	0.000	0.000
715.000	0.000	0.000	0.000
716.000	0.000	0.000	0.000
717.000	0.000	0.000	0.000
718.000	0.000	0.000	0.000
719.000	0.000	0.000	0.000
720.000	0.000	0.000	0.000
721.000	0.000	0.000	0.000
722.000	0.000	0.000	0.000
723.000	0.000	0.000	0.000
724.000	0.000	0.000	0.000
725.000	0.000	0.000	0.000
726.000	0.000	0.000	0.000
727.000	0.000	0.000	0.000
728.000	0.000	0.000	0.000
729.000	0.000	0.000	0.000
730.000	0.000	0.000	0.000
731.000	0.000	0.000	0.000
732.000	0.000	0.000	0.000
733.000	0.000	0.000	0.000
734.000	0.000	0.000	0.000
735.000	0.000	0.000	0.000
736.000	0.000	0.000	0.000
737.000	0.000	0.000	0.000
738.000	0.000	0.000	0.000
739.000	0.000	0.000	0.000
740.000	0.000	0.000	0.000
741.000	0.000	0.000	0.000
742.000	0.000	0.000	0.000
743.000	0.000	0.000	0.000
744.000	0.000	0.000	0.000
745.000	0.000	0.000	0.000
746.000	0.000	0.000	0.000
747.000	0.000	0.000	0.000
748.000	0.000	0.000	0.000
749.000	0.000	0.000	0.000
750.000	0.000	0.000	0.000
751.000	0.000	0.000	0.000
752.000	0.000	0.000	0.000
753.000	0.000	0.000	0.000
754.000	0.000	0.000	0.000
755.000	0.000	0.000	0.000
756.000	0.000	0.000	0.000
757.000	0.000	0.000	0.000
758.000	0.000	0.000	0.000
759.000	0.000	0.000	0.000
760.000	0.000	0.000	0.000
761.000	0.000	0.000	0.000
762.000	0.000	0.000	0.000
763.000	0.000	0.000	0.000
764.000	0.000	0.000	0.000
765.000	0.000	0.000	0.000
766.000	0.000	0.000	0.000
767.000	0.000	0.000	0.000
768.000	0.000	0.000	0.000
769.000	0.000	0.000	0.000
770.000	0.000	0.000	0.000
771.000	0.000	0.000	0.000
772.000	0.000	0.000	0.000
773.000	0.000	0.000	0.000
774.000	0.000	0.000	0.000
775.000	0.000	0.000	0.000
776.000	0.000	0.000	0.000
777.000	0.000	0.000	0.000
778.000	0.000	0.000	0.000
779.000	0.000	0.000	0.000
780.000	0.000	0.000	0.000
781.000	0.000	0.000	0.000
782.000	0.000	0.000	0.000
783.000	0.000	0.000	0.000
784.000	0.000	0.000	0.000
785.000	0.000	0.000	0.000
786.000	0.000	0.000	0.000
787.000	0.000	0.000	0.000
788.000	0.000	0.000	0.000
789.000	0.000	0.000	0.000
790.000	0.000	0.000	0.000
791.000	0.000	0.000	0.000
792.000	0.000	0.000	0.000
793.000	0.000	0.000	0.000
794.000	0.000	0.000	0.000
795.000	0.000	0.000	0.000
796.000	0.000	0.000	0.000
797.000	0.000	0.000	0.000
798.000	0.000	0.000	0.000
799.000	0.000	0.000	0.000
800.000	0.000	0.000	0.000
801.000	0.000	0.000	0.000
802.000	0.000	0.000	0.000
803.000	0.000	0.000	0.000
804.000	0.000	0.000	0.000
805.000	0.000	0.000	0.000
806.000	0.000	0.000	0.000
807.000	0.000	0.000	0.000
808.000	0.000	0.000	0.000
809.000	0.000	0.000	0.000
810.000	0.000	0.000	0.000
811.000	0.000	0.000	0.000
812.000	0.000	0.000	0.000
813.000	0.000	0.000	0.000
814.000	0.000	0.000	0.000
815.000	0.000	0.000	0.000
816.000	0.000	0.000	0.000
817.000	0.000	0.000	0.000
818.000	0.000	0.000	0.000
819.000	0.000	0.000	0.000
820.000	0.000	0.000	0.000
821.000	0.000	0.000	0.000
822.000	0.000	0.000	0.000
823.000	0.000	0.000	0.000
824.000	0.000	0.000	0.000
825.000	0.000	0.000	0.000
826.000	0.000	0.000	0.000
827.000	0.000	0.000	0.000
828.000	0.000	0.000	0.000
829.000	0.000	0.000	0.000
830.000	0.000	0.000	0.000
831.000	0.000	0.000	0.000
832.000	0.000	0.000	0.000
833.000	0.000	0.000	0.000
834.000	0.000	0.000	0.000
835.000	0.000	0.000	0.000
836.000	0.000	0.000	0.000
837.000	0.000	0.000	0.000
838.000	0.000	0.000	0.000
839.000	0.000	0.000	0.000
840.000	0.000	0.000	0.000
841.000	0.000	0.000	0.000
842.000	0.000	0.000	0.000
843.000	0.000	0.000	0.000
844.000	0.000	0.000	0.000
845.000	0.000	0.000	0.000
846.000	0.000	0.000	0.000
847.000	0.000	0.000	0.000
848.000	0.000	0.000	0.000
849.000	0.000	0.000	0.000
850.000	0.000	0.000	0.000
851.000	0.000	0.000	0.000
852.000	0.000	0.000	0.000
853.000	0.000	0.000	0.000
854.000	0.000	0.000	0.000
855.000	0.000	0.000	0.000
856.000	0.000	0.000	0.000
857.000	0.000	0.000	0.000
858.000	0.000	0.000	0.000
859.000	0.000	0.000	0.000
860.000	0.000	0.000	0.000
861.000	0.000	0.000	0.000
862.000	0.000	0.000	0.000
863.000	0.000	0.000	0.000
864.000	0.000	0.000	0.000
865.000	0.000	0.000	0.000
866.000	0.000	0.000	0.000
867.000	0.000	0.000	0.000
868.000	0.000	0.000	0.000
869.000	0.000	0.000	0.000
870.000	0.000	0.000	0.000
871.000	0.000	0.000	0.000
872.000	0.000	0.000	0.000
873.000	0.000	0.000	0.000
874.000	0.000	0.000	0.000
875.000	0.000	0.000	0.000
876.000	0.000	0.000	0.000
877.000	0.000	0.000	0.000
878.000	0.000	0.000	0.000
879.000	0.000	0.000	0.000
880.000	0.000	0.000	0.000
881.000	0.000	0.000	0.000
882.000	0.000	0.000	0.000
883.000	0.000	0.000	0.000
884.000	0.000	0.000	0.000
885.000	0.000	0.000	0.000
886.000	0.000	0.000	0.000
887.000	0.000	0.000	0.000
888.000	0.000	0.000	0.000
889.000	0.000	0.000	0.000
890.000	0.000	0.000	0.000
891.000	0.000	0.000	0.000
892.000	0.000	0.000	0.000
893.000	0.000	0.000	0.000
894.000	0.000	0.000	0.000
895.000	0.000	0.000	0.000
896.000	0.000	0.000	0.000
897.000	0.000	0.000	0.000
898.000	0.000	0.000	0.000
899.000	0.000	0.000	0.000
900.000	0.000	0.000	0.000
901.000	0.000	0.000	0.000
902.000	0.000	0.000	0.000
903.000	0.000	0.000	0.000
904.000	0.000	0.000	0.000
905.000	0.000	0.000	0.000
906.000	0.000	0.000	0.000
907.000	0.000	0.000	0.000
908.000	0.000	0.000	0.000
909.000	0.000	0.000	0.000
910.000	0.000	0.000	0.000
911.000	0.000	0.000	0.000
912.000	0.000	0.000	0.000
913.000	0.000	0.000	0.000
914.000	0.000	0.000	0.000
915.000	0.000	0.000	0.000
916.000	0.000	0.000	0.000
917.000	0.000	0.000	0.000
918.000	0.000	0.000	0.000
919.000	0.000	0.000	0.000
920.000	0.000	0.000	0.000
921.000	0.000	0.000	0.000
922.000	0.000	0.000	0.000
923.000	0.000	0.000	0.000
924.000	0.000	0.000	0.000
925.000	0.000	0.000	0.000
926.000	0.000	0.000	0.000
927.000	0.000	0.000	0.000
928.000	0.000	0.000	0.000
929.000	0.000	0.000	0.000
930.000	0.000	0.000	0.000
931.000	0.000	0.000	0.000
932.000	0.000	0.000	0.000
933.000	0.000	0.000	0.000
934.000	0.000	0.000	0.000
935.000	0.000	0.000	0.000
936.000	0.000	0.000	0.000
937.000	0.000	0.000	0.000
938.000	0.000	0.000	0.000
939.000	0.000	0.000	0.000
940.000	0.000	0.000	0.000
941.000	0.000	0.000	0.000
942.000	0.000	0.000	0.000
943.000	0.000	0.000	0.000
944.000	0.000	0.000	0.000
945.000	0.000	0.000	0.000
946.000	0.000	0.000	0.000
947.000	0.000	0.000	0.000
948.000	0.000	0.000	0.000
949.000	0.000	0.000	0.000
950.000	0.000	0.000	0.000
951.000	0.000	0.000	0.000
952.000	0.000	0.000	0.000
953.000	0.000	0.000	0.000
954.000	0.000	0.000	0.000
955.000	0.000	0.000	0.000
956.000	0.000	0.000	0.000
957.000	0.000	0.000	0.000
958.000	0.000	0.000	0.000
959.000	0.000	0.000	0.000
960.000	0.000	0.000	0.000
961.000	0.000	0.000	0.000
962.000	0.000	0.000	0.000
963.000	0.000	0.000	0.000
964.000	0.000	0.000	0.000
965.000	0.000	0.000	0.000
966.000	0.000	0.000	0.000
967.000	0.000	0.000	0.000
968.000	0.000	0.000	0.000
969.000	0.000	0.000	0.000
970.000	0.000	0.000	0.000
971.000	0.000	0.000	0.000
972.000	0.000	0.000	0.000
973.000	0.000	0.000	0.000
974.000	0.000	0.000	0.000
975.000	0.000	0.000	0.000
976.000	0.000	0.000	0.000
977.000	0.000	0.000	0.000
978.000	0.000	0.000	0.000
979.000	0.000	0.000	0.000
980.000	0.000	0.000	0.000
981.000	0.000	0.000	0.000
982.000	0.000	0.000	0.000
983.000	0.000	0.000	0.000
984.000	0.000	0.000	0.000
985.000	0.000	0.000	0.000
986.000	0.000	0.000	0.000
987.000	0.000	0.000	0.000
988.000	0.000	0.000	0.000
989.000	0.000	0.000	0.000
990.000	0.000	0.000	0.000
991.000	0.000	0.000	0.000
992.000	0.000	0.000	0.000
993.000	0.000	0.000	0.000
994.000	0.000	0.000	0.000
995.000	0.000	0.000	0.000
996.000	0.000	0.000	0.000
997.000	0.000	0.000	0.000
998.000	0.000	0.000	0.000
999.000	0.000	0.000	0.000
1000.000	0.000	0.000	0.000
1001.000	0.000	0.000	0.000
1002.000	0.000	0.000	0.000
1003.000	0.000	0.000	0.000
1004.000	0.000	0.000	0.000
1005.000	0.000	0.000	0.000
1006.000	0.000	0.000	0.000
1007.000	0.000	0.000	0.000
1008.000	0.000	0.000	0.000
1009.000	0.000	0.000	0.000
1010.000	0.000	0.000	0.000
1011.000	0.000	0.000	0.000
1012.000	0.000	0.000	0.000
1013.000	0.000	0.000	0.000
1014.000	0.000	0.000	0.000
1015.000	0.000	0.000	0.000
1016.000	0.000	0.000	0.000
1017.000	0.000	0.000	0.000
1018.000	0.000	0.000	0.000
1019.000	0.000	0.000	0.000
1020.000	0.000	0.000	0.000
1021.000	0.000	0.000	0.000
1022.000	0.000	0.000	0.000
1023.000	0.000	0.000	0.000
1024.000	0.000	0.000	0.000
1025.000	0.000	0.000	0.000
1026.000	0.000	0.000	0.000
1027.000	0.000	0.000	0.000
1028.000	0.000	0.000	0.000
1029.000	0.000	0.000	0.000
1030.000	0.000	0.000	0.000
1031.000	0.000	0.000	0.000
1032.000	0.000	0.000	0.000
1033.000	0.000	0.000	0.000
1034.000	0.000	0.000	0.000
1035.000	0.000	0.000	0.000
1036.000	0.000	0.000	0.000
1037.000	0.000	0.000	0.000
1038.000	0.000	0.000	0.000
1039.000	0.000	0.000	0.000
1040.000	0.000	0.000	0.000
1041.000	0.000	0.000	0.000
1042.000	0.000	0.000	0.000
1043.000	0.000	0.000	0.000
1044.000	0.000	0.000	0.000
1045.000	0.000	0.000	0.000
1046.000	0.000	0.000	0.000
1047.000	0.000	0.000	0.000
1048.000	0.000	0.000	0.000
1049.000	0.000	0.000	0.000
1050.000	0.000	0.000	0.000
1051.000	0.000	0.000	0.000
1052.000	0.000	0.000	0.000
1053.000	0.000	0.000	0.000
1054.000	0.000	0.000	0.000
1055.000	0.000	0.000	0.000
1056.000	0.000	0.000	0.000
1057.000	0.000	0.000	0.000
1058.000	0.000	0.000	0.000
1059.000	0.000	0.000	0.000
1060.000	0.000	0.000	0.000
1061.000	0.000	0.000	0.000
1062.000	0.000	0.000	0.000
1063.000	0.000	0.000	0.000
1064.000	0.000	0.000	0.000
1065.000	0.000	0.000	0.000
1066.000	0.000	0.000	0.000
1067.000	0.000	0.000	0.000
1068.000	0.000	0.000	0.000
1069.000	0.000	0.000	0.000
1070.000	0.000	0.000	0.000
1071.000	0.000	0.000	0.000
1072.000	0.000	0.000	0.000
1073.000	0.000	0.000	0.000
1074.000	0.000	0.000	0.000
1075.000	0.000	0.000	0.000
1076.000	0.000	0.000	0.000
1077.000	0.000	0.000	0.000
1078.000	0.000	0.000	0.000
1079.000	0.000	0.000	0.000
1080.000	0.000	0.000	0.000
1081.000	0.000	0.000	0.000
1082.000	0.000	0.000	0.000
1083.000	0.000	0.000	0.000
1084.000	0.000	0.000	0.000
1085.000	0.000	0.000	0.000
1086.000	0.000	0.000	0.000
1087.000	0.000	0.000	0.000
1088.000	0.000	0.000	0.000
1089.000	0.000	0.000	0.000
1090.000	0.000	0.000	0.000
1091.000	0.000	0.000	0.000
1092.000	0.000	0.000	0.000
1093.000	0.000	0.000	0.000
1094.000	0.000	0.000	0.000
1095.000	0.000	0.000	0.000
1096.000	0.000	0.000	0.000
1097.000	0.000	0.000	0.000
1098.000	0.000	0.000	0.000
1099.000	0.000	0.000	0.000
1100.000	0.000	0.000	0.000
1101.000	0.000	0.000	0.000
1102.000	0.000	0.000	0.000
1103.000	0.000	0.000	0.000
1104.000	0.000	0.000	0.000
1105.000	0.000	0.000	0.000
1106.000	0.000	0.000	0.000
1107.000	0.000	0.000	0.000
1108.000	0.000	0.000	0.000
1109.000	0.000	0.000	0.000
1110.000	0.000	0.000	0.000
1111.000	0.000	0.000	0.000
1112.000	0.000	0.000	0.000
1113.000	0.000	0.000	0.000
1114.000	0.000	0.000	0.000
1115.000	0.000	0.000	0.000
1116.000	0.000	0.000	0.000
1117.000	0.000	0.000	0.000
1118.000	0.000	0.000	0.000
1119.000	0.000	0.000	0.000
1120.000	0.000	0.000	0.000
1121.000	0.000	0.000	0.000
1122.000	0.000	0.000	0.000
1123.000	0.000	0.000	0.000
1124.000	0.000	0.000	0.000
1125.000	0.000	0.000	0.000
1126.000	0.000	0.000	0.000
1127.000	0.000	0.000	0.000
1128.000	0.000	0.000	0.000
1129.000	0.000	0.000	0.000
1130.000	0.000	0.000	0.000
1131.000	0.000	0.000	0.000
1132.000	0.000	0.000	0.000
1133.000	0.000	0.000	0.000
1134.000	0.000	0.000	0.000
1135.000	0.000	0.000	0.000
1136.000	0.000	0.000	0.000
1137.000	0.000	0.000	0.000
1138.000	0.000	0.000	0.000
1139.000	0.000	0.000	0.000
1140.000	0.000	0.000	0.000
1141.000	0.000	0.000	0.000
1142.000	0.000	0.000	0.000
1143.000	0.000	0.000	0.000
1144.000	0.000	0.000	0.000
1145.000	0.000	0.000	0.000
1146.000	0.000	0.000	0.000
1147.000	0.000	0.000	0.000
1148.000	0.000	0.000	0.000
1149.000	0.000	0.000	0.000
1150.000	0.000	0.000	0.000
1151.000	0.000	0.000	0.000
1152.000	0.000	0.000	0.000
1153.000	0.000	0.000	0.000
1154.000	0.000	0.000	0.000
1155.000	0.000	0.000	0.000
1156.000	0.000	0.000	0.000
1157.000	0.000	0.000	0.000
1158.000	0.000	0.000	0.000
1159.000	0.000	0.000	0.000
1160.000	0.000	0.000	0.000
1161.000	0.000	0.000	0.000
1162.000	0.000	0.000	0.000
1163.000	0.000	0.000	0.000
1164.000	0.000	0.000	0.000
1165.000	0.000	0.000	0.000
1166.000	0.000	0.000	0.000
1167.000	0.000	0.000	0.000
1168.000	0.000	0.000	0.000
1169.000	0.000	0.000	0.000
1170.000	0.000	0.000	0.000
1171.000	0.000	0.000	0.000
1172.000	0.000	0.000	0.000
1173.000	0.000	0.000	0.000
1174.000	0.000	0.000	0.000
1175.000	0.000	0.000	0.000
1176.000	0.000	0.000	0.000
1177.000	0.000	0.000	0.000
1178.000	0.000	0.000	0.000
1179.000	0.000	0.000	0.000
1180.000	0.000	0.000	0.000
1181.000	0.000	0.000	0.000
1182.000	0.000	0.000	0.000
1183.000	0.000	0.000	0.000
1184.000	0.000	0.000	0.000
1185.000	0.000	0.000	0.000
1186.000	0.000	0.000	0.000
1187.000	0.000	0.000	0.000
1188.000	0.000	0.000	0.000
1189.000	0.000	0.000	0.000
1190.000	0.000	0.000	0.000
1191.000	0.000	0.000	0.000
1192.000	0.000	0.000	0.000
1193.000	0.000	0.000	0.000
1194.000	0.000	0.000	0.000
1195.000	0.000	0.000	0.000
1196.000	0.000	0.000	0.000
1197.000	0.000	0.000	0.000
1198.000	0.000	0.000	0.000
1199.000	0.000	0.000	0.000
1200.000	0.000	0.000	0.000
1201.000	0.000	0.000	0.000
1202.000	0.000	0.000	0.000
1203.000	0.000	0.000	0.000
1204.000	0.000	0.000	0.000
1205.000	0.000	0.000	0.000
1206.000	0.000	0.000	0.000
1207.000	0.000	0.000	0.000
1208.000	0.000	0.000	0.000
1209.000	0.000	0.000	0.000
1210.000	0.000	0.000	0.000
1211.000	0.000	0.000	0.000
1212.000	0.000	0.000	0.000
1213.000	0.000	0.000	0.000
1214.000	0.000	0.000	0.000
1215.000	0.000	0.000	0.000
1216.000	0.000	0.000	0.000
1217.000	0.000	0.000	0.000
1218.000	0.000	0.000	0.000
1219.000	0.000	0.000	0.000
1220.000	0.000	0.000	0.000
1221.000	0.000	0.000	0.000
1222.000	0.000	0.000	0.000
1223.000	0.000	0.000	0.000
1224.000	0.000	0.000	0.000
1225.000	0.000	0.000	0.000
1226.000	0.000	0.000	0.000
1227.000	0.000	0.000	0.000
1228.000	0.000	0.000	0.000
1229.000	0.000	0.000	0.000
1230.000	0.000	0.000	0.000
1231.000	0.000	0.000	0.000
1232.000	0.000	0.000	0.000
1233.000	0.000	0.000	0.000
1234.000	0.000	0.000	0.000
1235.000	0.000	0.000	0.000
1236.000	0.000	0.000	0.000
1237.000	0.000	0.000	0.000
1238.000	0.000	0.000	0.000
1239.000	0.000	0.000	0.000
1240.000	0.000	0.000	0.000
1241.000	0.000	0.000	0.000
1242.000	0.000	0.000	0.000
1243.000	0.000	0.000	0.000
1244.000	0.000	0.000	0.000
1245.000	0.000	0.000	0.000
1246.000	0.000	0.000	0.000
1247.000	0.000	0.000	0.000
1248.000	0.000	0.000	0.000
1249.000	0.000	0.000	0.000
1250.000	0.000	0.000	0.000
1251.000	0.000	0.000	0.000
1252.000	0.000	0.000	0.000
1253.000	0.000	0.000	0.000
1254.000	0.000	0.000	0.000
1255.000	0.000	0.000	0.000
1256.000	0.000	0.000	0.000
1257.000	0.000	0.000	0.000
1258.000	0.000	0.000	0.000
1259.000	0.000	0.000	0.000
1260.000	0.000	0.000	0.000
1261.000	0.000	0.000	0.000
1262.000	0.000	0.000	0.000
1263.000	0.000	0.000	0.000
1264.000	0.000	0.000	0.000
1265.000	0.000	0.000	0.000
1266.000	0.000	0.000	0.000
1267.000	0.000	0.000	0.000
1268.000	0.000	0.000	0.000
1269.000	0.000	0.000	0.000
1270.000	0.000	0.000	0.000
1271.000	0.000	0.000	0.000
1272.000	0.000	0.000	0.000
1273.000	0.000	0.000	0.000
1274.000	0.000	0.000	0.000
1275.000	0.000	0.000	0.000
1276.000	0.000	0.000	0.000
1277.000	0.000	0.000	0.000
1278.000	0.000	0.000	0.000
1279.000	0.000	0.000	0.000
